File: data/_xrf.txt
Sample	X	Y	d1 [Âµm]	Cu 1 [%]	In 1 [%]	Se 1 [%]	Mo 2 [Âµm]	Fe 3 [%]	Cr 3 [%]
1.0 57.17 33.9 1.78 21.8 29.6 48.6 0.301 81.6 18.4
1.0 93.078 33.9 1.99 21.7 29.7 48.6 0.301 81.5 18.5
1.0 128.986 33.9 2.33 22.0 29.3 48.8 0.301 81.6 18.4
1.0 164.892 33.9 2.39 22.3 29.2 48.5 0.306 81.5 18.5
1.0 81.108 39.964 1.9 21.8 29.7 48.5 0.298 81.6 18.4
1.0 117.016 39.964 2.32 21.8 30.0 48.2 0.305 81.5 18.5
1.0 152.922 39.964 2.41 22.1 29.3 48.5 0.293 81.8 18.2
1.0 69.14 46.028 1.87 21.7 29.4 48.9 0.296 81.6 18.4
1.0 105.046 46.028 2.17 22.0 29.4 48.6 0.302 81.6 18.4
1.0 140.954 46.028 2.39 22.2 29.4 48.4 0.299 81.6 18.4
1.0 57.17 52.092 1.8 21.4 29.8 48.8 0.292 81.6 18.4
1.0 96.07 52.092 1.98 21.9 29.2 48.8 0.287 81.6 18.4
1.0 131.976 52.092 2.36 22.0 29.5 48.4 0.306 81.6 18.4
1.0 167.886 52.092 2.41 22.1 29.5 48.4 0.294 81.6 18.4
1.0 84.1 58.158 1.97 21.5 30.1 48.4 0.305 81.7 18.3
1.0 120.01 58.158 2.34 21.8 29.9 48.3 0.306 81.7 18.3
1.0 155.916 58.158 2.4 22.1 29.3 48.5 0.297 81.6 18.4
2.0 66.882 89.906 2.28 19.5 30.8 49.7 0.297 81.7 18.3
2.0 102.648 89.906 1.89 19.9 29.8 50.4 0.29 81.6 18.4
2.0 138.418 89.906 1.57 20.3 28.7 51.1 0.257 81.6 18.4
2.0 57.938 96.11 2.33 19.4 31.1 49.5 0.305 81.7 18.3
2.0 93.708 96.11 1.98 19.7 30.3 50.0 0.293 81.6 18.4
2.0 129.476 96.11 1.75 19.8 30.2 50.0 0.278 81.7 18.3
2.0 165.242 96.11 1.25 22.0 26.7 51.3 0.208 81.7 18.3
2.0 84.766 102.314 2.1 19.6 30.8 49.6 0.296 81.7 18.3
2.0 120.534 102.314 1.82 20.0 29.9 50.1 0.281 81.7 18.3
2.0 156.3 102.314 1.39 21.5 27.3 51.1 0.213 81.8 18.2
2.0 75.824 108.516 2.2 19.4 30.9 49.7 0.294 81.6 18.4
2.0 111.59 108.516 1.89 19.7 30.2 50.1 0.289 81.7 18.3
2.0 153.32 108.516 1.43 21.2 27.7 51.1 0.223 81.7 18.3
2.0 72.84 114.72 2.24 19.5 30.6 49.9 0.299 81.7 18.3
2.0 108.61 114.72 1.91 19.8 30.5 49.7 0.294 81.6 18.4
2.0 144.378 114.72 1.55 20.5 28.5 50.9 0.249 81.7 18.3
3.0 72.902 161.496 1.78 19.4 30.3 50.4 0.29 81.6 18.4
3.0 108.784 161.496 2.03 19.4 30.5 50.1 0.296 81.6 18.4
3.0 144.666 161.496 2.35 19.5 30.9 49.6 0.313 81.5 18.5
3.0 66.922 167.542 1.83 19.4 30.6 50.1 0.294 81.7 18.3
3.0 102.804 167.542 1.97 19.4 30.3 50.3 0.296 81.6 18.4
3.0 138.686 167.542 2.36 19.6 31.0 49.5 0.316 81.7 18.3
3.0 60.942 173.588 1.68 19.3 30.3 50.3 0.286 81.6 18.4
3.0 96.824 173.588 1.94 19.4 30.5 50.1 0.289 81.7 18.3
3.0 132.706 173.588 2.33 19.3 30.8 49.9 0.311 81.6 18.4
3.0 168.588 173.588 2.36 19.4 30.6 50.0 0.306 81.7 18.3
3.0 90.844 179.634 1.89 19.3 30.1 50.5 0.292 81.5 18.5
3.0 126.726 179.634 2.31 19.5 30.7 49.9 0.306 81.7 18.3
3.0 162.608 179.634 2.36 19.5 30.6 49.9 0.301 81.6 18.4
3.0 84.864 185.68 1.73 19.7 29.3 51.0 0.263 81.5 18.5
3.0 120.746 185.68 2.22 19.4 30.6 50.1 0.297 81.6 18.4
3.0 156.628 185.68 2.33 19.4 30.6 50.0 0.308 81.6 18.4
4.0 63.798 119.668 2.06 19.4 30.7 49.9 0.326 81.8 18.2
4.0 99.93 119.668 1.98 19.4 30.6 49.9 0.33 81.8 18.2
4.0 136.06 119.668 1.86 19.3 31.1 49.6 0.321 81.7 18.3
4.0 54.764 125.758 2.03 19.4 30.6 50.0 0.322 81.7 18.3
4.0 90.896 125.758 2.01 19.4 30.6 50.0 0.326 81.7 18.3
4.0 127.028 125.758 1.89 19.3 31.1 49.6 0.328 81.7 18.3
4.0 45.732 131.842 2.3 17.7 35.5 46.8 0.393 80.5 19.5
4.0 81.864 131.842 2.05 19.5 30.7 49.8 0.328 81.7 18.3
4.0 117.994 131.842 1.92 19.5 30.6 49.9 0.327 81.7 18.3
4.0 154.126 131.842 1.78 19.8 30.7 49.5 0.31 81.6 18.4
4.0 72.83 137.93 2.08 19.4 30.9 49.7 0.335 81.8 18.2
4.0 108.964 137.93 1.96 19.5 30.8 49.7 0.321 81.7 18.3
4.0 145.094 137.93 1.83 19.6 30.9 49.5 0.328 81.7 18.3
4.0 63.798 144.018 2.09 19.3 30.5 50.1 0.327 81.8 18.2
4.0 99.93 144.018 2.01 19.5 30.7 49.8 0.327 81.8 18.2
4.0 136.062 144.018 1.87 19.3 31.3 49.4 0.331 81.6 18.4
6.0 49.518 54.658 1.28 20.9 27.8 51.3 0.264 81.6 18.4
6.0 85.286 54.658 1.71 20.1 29.1 50.8 0.288 81.7 18.3
6.0 121.052 54.658 1.87 20.4 29.1 50.5 0.283 81.5 18.5
6.0 156.82 54.658 2.38 19.8 30.4 49.8 0.309 81.7 18.3
6.0 46.538 60.724 1.35 20.3 29.3 50.4 0.286 81.6 18.4
6.0 82.304 60.724 1.67 20.5 28.2 51.3 0.274 81.7 18.3
6.0 118.072 60.724 1.91 20.1 29.5 50.4 0.29 81.6 18.4
6.0 153.842 60.724 2.25 20.2 29.6 50.2 0.287 81.7 18.3
6.0 43.556 66.792 1.5 18.2 36.3 45.6 0.389 80.3 19.7
6.0 79.324 66.792 1.6 20.4 28.1 51.5 0.274 81.6 18.4
6.0 115.092 66.792 1.88 20.1 29.4 50.5 0.281 81.6 18.4
6.0 150.86 66.792 2.35 19.9 30.2 49.9 0.305 81.7 18.3
6.0 40.576 72.858 1.71 16.8 39.8 43.5 0.496 79.8 20.2
6.0 76.344 72.858 1.58 20.3 28.0 51.7 0.271 81.7 18.3
6.0 112.114 72.858 1.81 20.4 28.7 50.9 0.261 81.5 18.5
6.0 147.878 72.858 2.31 19.9 30.2 49.8 0.298 81.6 18.4
6.0 183.648 72.858 2.43 19.7 30.7 49.6 0.307 81.7 18.3
6.0 73.362 78.924 1.54 20.4 28.0 51.6 0.265 81.7 18.3
6.0 109.13 78.924 1.84 20.1 29.1 50.8 0.277 81.5 18.5
6.0 144.898 78.924 2.34 19.6 30.6 49.7 0.304 81.7 18.3
6.0 180.666 78.924 2.43 19.6 30.6 49.8 0.311 81.8 18.2
7.0 73.682 145.278 1.92 22.2 28.1 49.8 0.303 81.5 18.5
7.0 109.402 145.278 2.53 21.7 29.2 49.1 0.329 81.5 18.5
7.0 145.122 145.278 2.87 21.2 30.2 48.6 0.346 81.6 18.4
7.0 55.824 151.236 1.72 22.2 28.2 49.5 0.302 81.6 18.4
7.0 91.542 151.236 2.36 21.9 28.8 49.3 0.321 81.7 18.3
7.0 127.262 151.236 2.74 21.3 30.1 48.6 0.348 81.4 18.6
7.0 162.984 151.236 2.92 21.1 30.3 48.6 0.353 81.6 18.4
7.0 73.684 157.192 1.94 22.0 28.1 49.9 0.308 81.6 18.4
7.0 112.378 157.192 2.61 21.7 29.3 49.0 0.328 81.6 18.4
7.0 148.1 157.192 2.78 21.6 29.4 49.0 0.33 81.5 18.5
7.0 58.802 163.152 1.77 22.1 27.9 50.0 0.303 81.6 18.4
7.0 94.52 163.152 2.39 22.0 28.6 49.4 0.316 81.6 18.4
7.0 133.216 163.152 2.79 21.6 29.5 48.9 0.343 81.6 18.4
7.0 43.916 169.108 1.45 21.7 27.7 50.6 0.306 81.5 18.5
7.0 79.636 169.108 2.06 22.0 28.2 49.8 0.316 81.6 18.4
7.0 115.356 169.108 2.6 21.7 29.7 48.6 0.332 81.4 18.6
7.0 151.074 169.108 2.85 21.2 29.9 48.9 0.346 81.6 18.4
8.0 90.634 86.032 1.68 24.5 27.6 47.8 0.3 81.6 18.4
8.0 126.562 86.032 1.91 24.3 28.4 47.4 0.322 81.6 18.4
8.0 162.492 86.032 1.84 24.0 27.4 48.6 0.319 81.3 18.7
8.0 78.656 92.104 -1.0 -1.0 -1.0 -1.0 -1.0 -1.0 -1.0
8.0 114.586 92.104 1.79 24.4 27.9 47.6 0.314 81.6 18.4
8.0 150.516 92.104 1.99 24.0 28.1 47.8 0.323 81.6 18.4
8.0 186.448 92.104 2.46 23.3 29.3 47.4 0.34 81.6 18.4
8.0 102.61 98.178 1.64 24.6 27.2 48.2 0.31 81.6 18.4
8.0 138.54 98.178 1.87 24.0 28.0 48.0 0.316 81.5 18.5
8.0 174.47 98.178 2.4 23.5 29.3 47.1 0.345 81.5 18.5
8.0 90.632 104.252 1.74 24.3 28.0 47.7 0.313 81.7 18.3
8.0 126.562 104.252 1.9 24.1 28.4 47.5 0.32 81.6 18.4
8.0 162.494 104.252 1.87 24.1 27.4 48.5 0.313 81.5 18.5
8.0 78.656 110.324 1.55 24.8 26.1 49.0 0.278 81.7 18.3
8.0 114.588 110.324 1.94 23.9 28.8 47.2 0.324 81.6 18.4
8.0 150.516 110.324 2.0 23.9 28.3 47.8 0.316 81.5 18.5
8.0 186.446 110.324 2.46 23.5 29.1 47.4 0.332 81.6 18.4
9.0 106.386 147.286 1.45 23.4 27.6 49.0 0.319 81.5 18.5
9.0 142.36 147.286 1.76 23.1 28.2 48.8 0.328 81.4 18.6
9.0 178.332 147.286 2.46 22.6 29.9 47.5 0.337 81.6 18.4
9.0 94.394 153.318 1.77 23.4 28.5 48.1 0.307 81.7 18.3
9.0 130.368 153.318 -1.0 -1.0 -1.0 -1.0 -1.0 -1.0 -1.0
9.0 166.34 153.318 1.92 23.2 27.8 49.0 0.324 81.5 18.5
9.0 82.406 159.346 1.49 23.8 27.6 48.6 0.299 81.6 18.4
9.0 118.376 159.346 1.94 22.9 29.1 48.0 0.325 81.6 18.4
9.0 154.35 159.346 2.32 22.5 29.5 48.0 0.325 81.6 18.4
9.0 190.324 159.346 2.47 22.8 29.7 47.5 0.339 81.7 18.3
9.0 106.386 165.376 1.51 23.3 27.8 48.9 0.321 81.5 18.5
9.0 142.358 165.376 1.75 22.8 28.6 48.6 0.339 81.3 18.7
9.0 178.332 165.376 1.99 22.9 28.9 48.2 0.334 81.5 18.5
9.0 94.396 171.408 1.78 23.4 28.1 48.5 0.306 81.7 18.3
9.0 130.368 171.408 -1.0 -1.0 -1.0 -1.0 -1.0 -1.0 -1.0
9.0 166.34 171.408 1.93 23.1 28.0 48.9 0.325 81.5 18.5
10.0 79.362 29.83 1.63 20.1 32.5 47.4 0.337 81.4 18.6
10.0 115.474 29.83 1.92 19.7 33.1 47.1 0.359 81.3 18.7
10.0 151.58 29.83 2.24 19.5 33.9 46.5 0.387 81.2 18.8
10.0 187.69 29.83 2.37 19.0 35.8 45.2 0.409 80.8 19.2
10.0 100.426 35.966 1.82 19.9 32.4 47.7 0.345 81.5 18.5
10.0 136.538 35.966 2.07 19.9 32.7 47.4 0.365 81.5 18.5
10.0 172.644 35.966 2.35 19.3 35.2 45.6 0.396 80.9 19.1
10.0 85.38 42.098 1.68 20.3 32.3 47.4 0.337 81.5 18.5
10.0 121.49 42.098 1.95 20.1 32.7 47.2 0.367 81.4 18.6
10.0 157.598 42.098 2.28 19.5 33.7 46.9 0.388 81.1 18.9
10.0 193.708 42.098 2.33 19.2 35.0 45.8 0.392 81.0 19.0
10.0 106.446 48.234 1.86 20.0 33.0 47.0 0.347 81.3 18.7
10.0 142.554 48.234 2.21 19.6 33.8 46.6 0.378 81.2 18.8
10.0 178.662 48.234 2.35 19.1 35.2 45.6 0.397 80.9 19.1
10.0 91.398 54.368 1.76 20.2 32.5 47.3 0.342 81.5 18.5
10.0 127.51 54.368 1.98 20.2 32.5 47.3 0.349 81.5 18.5
10.0 163.616 54.368 1.95 19.5 33.7 46.8 0.389 81.1 18.9
11.0 61.875 142.255 1.565 13.3 42.15 44.6 0.4515 80.25 19.75
11.0 97.548 142.255 1.79 13.75 41.55 44.7 0.435 80.15 19.85
11.0 133.221 142.255 1.89 14.4 40.85 44.75 0.4185 80.0 20.0
11.0 168.894 142.255 2.065 14.45 40.9 44.6 0.4355 80.05 19.95
12.0 75.469 136.052 1.51 14.1 41.55 44.4 0.436 80.15 19.85
12.0 111.577 136.052 1.66 14.5 40.7 44.8 0.4205 79.9 20.1
12.0 147.685 136.052 1.92 14.8 40.85 44.4 0.4375 80.1 19.9
13.0 53.16 116.641 1.82 13.2 42.45 44.3 0.4515 80.15 19.85
13.0 88.918 116.641 1.95 13.5 41.9 44.65 0.458 79.9 20.1
13.0 124.68 116.641 2.175 14.4 41.05 44.55 0.4485 79.8 20.2
13.0 160.438 116.641 2.745 15.05 41.0 43.95 0.4345 79.95 20.05
14.0 67.982 103.706 1.675 14.05 41.95 43.95 0.458 80.1 19.9
14.0 104.26 103.706 2.23 14.8 41.6 43.6 0.447 80.1 19.9
14.0 140.54 103.706 2.5 15.5 41.1 43.45 0.44 80.0 20.0
14.0 176.818 103.706 2.58 15.65 40.75 43.65 0.441 80.0 20.0
15.0 85.773 89.449 1.81 14.8 41.1 44.15 0.382 80.15 19.85
15.0 121.711 89.449 2.035 15.3 41.1 43.6 0.4155 80.05 19.95
15.0 157.648 89.449 2.185 16.15 40.5 43.3 0.4115 80.05 19.95
16.0 65.691 76.185 1.82 13.9 42.9 43.2 0.473 80.2 19.8
16.0 101.63 76.185 2.075 14.1 42.5 43.4 0.469 80.1 19.9
16.0 137.564 76.185 2.33 14.8 42.0 43.25 0.4625 80.05 19.95
16.0 173.502 76.185 2.42 15.65 41.55 42.85 0.4575 80.05 19.95
17.0 81.689 60.352 1.905 11.7 44.05 44.25 0.478 80.15 19.85
17.0 117.621 60.352 2.15 12.1 43.25 44.6 0.4635 80.1 19.9
17.0 153.552 60.352 2.335 12.75 42.9 44.35 0.4605 80.1 19.9
17.0 183.495 60.352 2.25 13.7 41.7 44.5 0.445 80.25 19.75