File: data/axis_raman.txt
36.9582
39.4709
41.9807
44.4919
47.0004
49.5103
52.0174
54.5238
57.0296
59.5347
62.037
64.5408
67.0417
69.5441
72.0438
74.5427
77.041
79.5386
82.0355
84.5318
87.0253
89.5202
92.0124
94.5039
96.9947
99.4849
101.974
104.463
106.951
109.437
111.924
114.408
116.891
119.376
121.858
124.337
126.818
129.298
131.775
134.254
136.73
139.206
141.68
144.154
146.628
149.1
151.57
154.042
156.51
158.98
161.448
163.914
166.38
168.844
171.308
173.772
176.234
178.694
181.156
183.616
186.074
188.532
190.988
193.444
195.898
198.354
200.807
203.259
205.71
208.161
210.611
213.06
215.507
217.955
220.401
222.845
225.289
227.733
230.176
232.618
235.057
237.498
239.937
242.374
244.813
247.249
249.683
252.118
254.552
256.984
259.417
261.847
264.277
266.706
269.134
271.562
273.989
276.413
278.839
281.262
283.685
286.107
288.528
290.949
293.369
295.786
298.205
300.621
303.036
305.451
307.865
310.278
312.691
315.103
317.513
319.924
322.332
324.739
327.146
329.553
331.956
334.362
336.766
339.168
341.569
343.969
346.369
348.769
351.167
353.565
355.961
358.355
360.751
363.145
365.538
367.93
370.321
372.71
375.101
377.488
379.875
382.262
384.648
387.033
389.417
391.801
394.182
396.565
398.945
401.325
403.703
406.082
408.459
410.834
413.21
415.584
417.957
420.33
422.701
425.073
427.443
429.813
432.181
434.547
436.915
439.281
441.646
444.008
446.372
448.735
451.095
453.455
455.816
458.175
460.533
462.888
465.245
467.601
469.954
472.307
474.661
477.013
479.362
481.713
484.063
486.41
488.758
491.104
493.45
495.795
498.139
500.482
502.823
505.166
507.506
509.845
512.183
514.521
516.859
519.195
521.53
523.865
526.198
528.531
530.862
533.193
535.524
537.852
540.181
542.508
544.834
547.162
549.487
551.809
554.133
556.456
558.777
561.097
563.416
565.737
568.053
570.371
572.688
575.002
577.318
579.631
581.944
584.256
586.568
588.876
591.187
593.494
595.804
598.11
600.416
602.721
605.024
607.328
609.632
611.933
614.233
616.533
618.833
621.131
623.429
625.725
628.02
630.316
632.61
634.903
637.196
639.486
641.777
644.066
646.356
648.644
650.358