File: data/x_raman.txt
36.5942
39.1069
41.6167
44.1279
46.6364
49.1463
51.6534
54.1598
56.6656
59.1707
61.673
64.1768
66.6777
69.1801
71.6798
74.1787
76.677
79.1746
81.6715
84.1678
86.6613
89.1562
91.6484
94.1399
96.6307
99.1209
101.61
104.099
106.587
109.073
111.56
114.044
116.527
119.012
121.494
123.973
126.454
128.934
131.411
133.89
136.366
138.842
141.316
143.79
146.264
148.736
151.206
153.678
156.146
158.616
161.084
163.55
166.016
168.48
170.944
173.408
175.87
178.33
180.792
183.252
185.71
188.168
190.624
193.08
195.534
197.99
200.443
202.895
205.346
207.797
210.247
212.696
215.143
217.591
220.037
222.481
224.925
227.369
229.812
232.254
234.693
237.134
239.573
242.01
244.449
246.885
249.319
251.754
254.188
256.62
259.053
261.483
263.913
266.342
268.77
271.198
273.625
276.049
278.475
280.898
283.321
285.743
288.164
290.585
293.005
295.422
297.841
300.257
302.672
305.087
307.501
309.914
312.327
314.739
317.149
319.56
321.968
324.375
326.782
329.189
331.592
333.998
336.402
338.804
341.205
343.605
346.005
348.405
350.803
353.201
355.597
357.991
360.387
362.781
365.174
367.566
369.957
372.346
374.737
377.124
379.511
381.898
384.284
386.669
389.053
391.437
393.818
396.201
398.581
400.961
403.339
405.718
408.095
410.47
412.846
415.22
417.593
419.966
422.337
424.709
427.079
429.449
431.817
434.183
436.551
438.917
441.282
443.644
446.008
448.371
450.731
453.091
455.452
457.811
460.169
462.524
464.881
467.237
469.59
471.943
474.297
476.649
478.998
481.349
483.699
486.046
488.394
490.74
493.086
495.431
497.775
500.118
502.459
504.802
507.142
509.481
511.819
514.157
516.495
518.831
521.166
523.501
525.834
528.167
530.498
532.829
535.16
537.488
539.817
542.144
544.47
546.798
549.123
551.445
553.769
556.092
558.413
560.733
563.052
565.373
567.689
570.007
572.324
574.638
576.954
579.267
581.58
583.892
586.204
588.512
590.823
593.13
595.44
597.746
600.052
602.357
604.66
606.964
609.268
611.569
613.869
616.169
618.469
620.767
623.065
625.361
627.656
629.952
632.246
634.539
636.832
639.122
641.413
643.702
645.992
648.28
649.994